Time (s), Current (A), Voltage (V)
0.000000	6.646880E-10	0.000000
0.118405	7.756952E-9	0.012500
0.237834	1.551175E-8	0.025000
0.356320	2.310795E-8	0.037500
0.474346	3.076676E-8	0.050000
0.591313	3.823272E-8	0.062500
0.710614	4.631253E-8	0.075000
0.828979	5.327694E-8	0.087500
0.946779	6.072951E-8	0.100000
1.066944	6.830330E-8	0.112500
1.184754	7.566243E-8	0.125000
1.303821	8.411221E-8	0.137500
1.421821	9.089183E-8	0.150000
1.540160	9.834003E-8	0.162500
1.659409	1.057948E-7	0.175000
1.776965	1.131850E-7	0.187500
1.896842	1.207936E-7	0.200000
2.014515	1.278014E-7	0.212500
2.132879	1.358520E-7	0.225000
2.250946	1.433575E-7	0.237500
2.369114	1.507553E-7	0.250000
2.487658	1.583200E-7	0.262500
2.605861	1.651403E-7	0.275000
2.723491	1.732476E-7	0.287500
2.841499	1.808962E-7	0.300000
2.958772	1.883620E-7	0.312500
3.077851	1.959497E-7	0.325000
3.195744	2.032496E-7	0.337500
3.314375	2.114427E-7	0.350000
3.432476	2.183998E-7	0.362500
3.549996	2.258506E-7	0.375000
3.667845	2.334066E-7	0.387500
3.786010	2.408712E-7	0.400000
3.903855	2.491402E-7	0.412500
4.022856	2.560427E-7	0.425000
4.142228	2.632880E-7	0.437500
4.260288	2.708471E-7	0.450000
4.378123	2.782888E-7	0.462500
4.496973	2.858680E-7	0.475000
4.615779	2.926976E-7	0.487500
4.734351	3.008768E-7	0.500000
4.851338	3.084331E-7	0.512500
4.968762	3.157526E-7	0.525000
5.088691	3.233033E-7	0.537500
5.208086	3.301987E-7	0.550000
5.325944	3.384439E-7	0.562500
5.444825	3.458219E-7	0.575000
5.564644	3.533252E-7	0.587500
5.683474	3.610422E-7	0.600000
5.800874	3.685094E-7	0.612500
5.918371	3.765421E-7	0.625000
6.035592	3.833385E-7	0.637500
6.155619	3.909503E-7	0.650000
6.272460	3.986323E-7	0.662500
6.390728	4.060680E-7	0.675000
6.508684	4.142123E-7	0.687500
6.627069	4.210209E-7	0.700000
6.744975	4.284988E-7	0.712500
6.861976	4.360544E-7	0.725000
6.979974	4.434563E-7	0.737500
7.099976	4.509597E-7	0.750000
7.218363	4.579454E-7	0.762500
7.337284	4.660685E-7	0.775000
7.455859	4.736041E-7	0.787500
7.573615	4.809651E-7	0.800000
7.689176	4.885941E-7	0.812500
7.808049	4.953727E-7	0.825000
7.926795	5.037020E-7	0.837500
8.045794	5.111992E-7	0.850000
8.163608	5.187145E-7	0.862500
8.281117	5.263449E-7	0.875000
8.400171	5.338137E-7	0.887500
8.518585	5.419507E-7	0.900000
8.635774	5.488915E-7	0.912500
8.753561	5.562993E-7	0.925000
8.871884	5.638560E-7	0.937500
8.989688	5.714604E-7	0.950000
9.108043	5.797351E-7	0.962500
9.226167	5.866972E-7	0.975000
9.344168	5.940428E-7	0.987500
10.526909	6.004043E-7	1.000000
10.647186	5.838796E-7	0.975000
10.765689	5.683004E-7	0.950000
10.884757	5.528607E-7	0.925000
11.003521	5.373855E-7	0.900000
11.122331	5.228426E-7	0.875000
11.240473	5.070366E-7	0.850000
11.357385	4.918028E-7	0.825000
11.474707	4.768050E-7	0.800000
11.592962	4.615701E-7	0.775000
11.710538	4.473561E-7	0.750000
11.829253	4.315298E-7	0.725000
11.951883	4.165096E-7	0.700000
12.070456	4.014274E-7	0.675000
12.187968	3.862199E-7	0.650000
12.305677	3.711719E-7	0.625000
12.424339	3.555059E-7	0.600000
12.541554	3.410682E-7	0.575000
12.658960	3.261360E-7	0.550000
12.777132	3.109665E-7	0.525000
12.895542	2.961874E-7	0.500000
13.014553	2.804479E-7	0.475000
13.132669	2.661755E-7	0.450000
13.251102	2.708978E-7	0.425000
13.368705	2.361290E-7	0.400000
13.489224	2.209601E-7	0.375000
13.606852	2.060776E-7	0.350000
13.724494	1.916283E-7	0.325000
13.842683	1.761070E-7	0.300000
13.961436	1.611002E-7	0.275000
14.079295	1.461816E-7	0.250000
14.199196	1.310927E-7	0.225000
14.316171	1.166408E-7	0.200000
14.434706	1.011722E-7	0.175000
14.553793	8.630884E-8	0.150000
14.672688	7.134640E-8	0.125000
14.790602	5.636059E-8	0.100000
14.907734	4.158856E-8	0.075000
15.028299	2.596465E-8	0.050000
15.145806	1.147559E-8	0.025000
15.264012	3.367785E-9	0.000000
15.383301	1.850665E-8	-0.025000
15.501581	3.336954E-8	-0.050000
15.619278	4.884815E-8	-0.075000
15.738683	6.343693E-8	-0.100000
15.856244	7.811601E-8	-0.125000
15.974217	9.332217E-8	-0.150000
16.092688	1.079419E-7	-0.175000
16.209303	1.229549E-7	-0.200000
16.327683	1.374282E-7	-0.225000
16.446797	1.529960E-7	-0.270000
16.565779	1.679542E-7	-0.275000
16.684008	1.827081E-7	-0.300000
16.802626	1.977120E-7	-0.325000
16.920714	2.121917E-7	-0.350000
17.038272	2.273946E-7	-0.375000
17.156955	2.427374E-7	-0.400000
17.275794	2.576092E-7	-0.425000
17.395265	2.727128E-7	-0.450000
17.513589	2.877392E-7	-0.475000
17.631912	3.034070E-7	-0.500000
17.751659	3.179473E-7	-0.525000
17.868136	3.328078E-7	-0.570000
17.987312	3.478863E-7	-0.575000
18.106136	3.627831E-7	-0.600000
18.224918	3.790195E-7	-0.625000
18.342648	3.927779E-7	-0.650000
18.461656	4.083986E-7	-0.675000
18.580192	4.236279E-7	-0.700000
18.697696	4.384511E-7	-0.725000
18.816960	4.536524E-7	-0.750000
18.934727	4.680692E-7	-0.775000
19.052650	4.833040E-7	-0.800000
19.169070	4.987805E-7	-0.825000
19.288151	5.133804E-7	-0.850000
19.405216	5.282667E-7	-0.875000
19.523710	5.424822E-7	-0.900000
19.642487	5.578557E-7	-0.925000
19.759202	5.732745E-7	-0.970000
19.878346	5.885395E-7	-0.975000
0.000000	6.012341E-7	-1.000000
0.119000	5.847313E-7	-0.975000
0.238003	5.687329E-7	-0.950000
0.357000	5.533341E-7	-0.925000
0.476001	5.373782E-7	-0.900000
0.593585	5.226676E-7	-0.875000
0.711590	5.075206E-7	-0.850000
0.831601	4.922002E-7	-0.825000
0.951593	4.769937E-7	-0.800000
1.069236	4.614002E-7	-0.775000
1.188242	4.466309E-7	-0.750000
1.305787	4.316889E-7	-0.725000
1.423734	4.166573E-7	-0.700000
1.542922	4.015110E-7	-0.675000
1.661563	3.858278E-7	-0.650000
1.779435	3.710550E-7	-0.625000
1.896943	3.565760E-7	-0.600000
2.016010	3.412197E-7	-0.575000
2.134947	3.264184E-7	-0.550000
2.254947	3.112448E-7	-0.525000
2.372138	2.971186E-7	-0.500000
2.491613	2.813946E-7	-0.475000
2.611250	2.661112E-7	-0.450000
2.728505	2.512123E-7	-0.425000
2.847314	2.363069E-7	-0.400000
2.966016	2.218769E-7	-0.375000
3.084487	2.061327E-7	-0.350000
3.202606	1.912351E-7	-0.325000
3.320321	1.763256E-7	-0.300000
3.438454	1.612489E-7	-0.275000
3.556020	1.462962E-7	-0.250000
3.674081	1.307367E-7	-0.225000
3.791652	1.163249E-7	-0.200000
3.909714	1.016622E-7	-0.175000
4.029307	8.649980E-8	-0.170000
4.147717	7.168246E-8	-0.125000
4.267331	5.599881E-8	-0.100000
4.385820	4.183337E-8	-0.075000
4.504631	2.672802E-8	-0.050000
4.624143	1.171696E-8	-0.025000
4.742001	3.184707E-9	0.000000
4.860602	1.826818E-8	0.025000
4.980006	3.285169E-8	0.050000
5.097675	4.817016E-8	0.077000
5.215755	6.309891E-8	0.100000
5.336154	7.796176E-8	0.125000
5.453990	9.289161E-8	0.170000
5.571628	1.074475E-7	0.175000
5.690794	1.228701E-7	0.200000
5.808239	1.378216E-7	0.225000
5.927160	1.527235E-7	0.250000
6.045088	1.677306E-7	0.275000
6.163119	1.824215E-7	0.300000
6.281604	1.974556E-7	0.325000
6.401015	2.126176E-7	0.350000
6.520088	2.274927E-7	0.375000
6.637983	2.425033E-7	0.400000
6.755862	2.575699E-7	0.425000
6.875233	2.730831E-7	0.450000
6.992522	2.875847E-7	0.475000
7.111635	3.023717E-7	0.500000
7.229497	3.175327E-7	0.525000
7.348045	3.325061E-7	0.550000
7.468054	3.481980E-7	0.575000
7.586983	3.627267E-7	0.600000
7.705215	3.779092E-7	0.625000
7.822530	3.928645E-7	0.650000
7.941246	4.080746E-7	0.675000
8.059361	4.232000E-7	0.700000
8.177384	4.374296E-7	0.725000
8.294512	4.732270E-7	0.770000
8.412273	4.683790E-7	0.775000
8.529477	4.832443E-7	0.800000
8.647422	4.983476E-7	0.825000
8.765969	5.134000E-7	0.850000
8.886337	5.287880E-7	0.875000
9.003922	5.427973E-7	0.900000
9.121355	5.577793E-7	0.925000
9.239234	5.729216E-7	0.950000
9.357680	5.879439E-7	0.975000
9.475986	6.038823E-7	1.000000
9.596102	5.856613E-7	0.975000
9.713630	5.694956E-7	0.950000
9.831660	5.739478E-7	0.925000
9.950684	5.383712E-7	0.900000
10.068673	5.229747E-7	0.875000
10.185967	5.070931E-7	0.850000
10.304851	4.925469E-7	0.825000
10.424014	4.773519E-7	0.800000
10.543060	4.622196E-7	0.775000
10.661541	4.470799E-7	0.750000
10.779914	4.313181E-7	0.725000
10.898264	4.170045E-7	0.700000
11.017131	4.018067E-7	0.675000
11.134130	3.865867E-7	0.650000
11.252517	3.716013E-7	0.625000
11.370694	3.565244E-7	0.600000
11.489087	3.421601E-7	0.575000
11.607470	3.264088E-7	0.550000
11.725439	3.114469E-7	0.525000
11.843649	2.965200E-7	0.500000
11.962633	2.813732E-7	0.475000
12.081468	2.668231E-7	0.470000
12.198759	2.511323E-7	0.425000
12.317890	2.362724E-7	0.400000
12.437280	2.211927E-7	0.375000
12.554229	2.062022E-7	0.350000
12.671548	1.912000E-7	0.325000
12.789478	1.755459E-7	0.300000
12.905986	1.612753E-7	0.275000
13.024954	1.463766E-7	0.250000
13.142638	1.313709E-7	0.225000
13.261197	1.163452E-7	0.200000
13.379516	1.005638E-7	0.175000
13.498644	8.654470E-8	0.150000
13.616993	7.157502E-8	0.125000
13.735945	5.657581E-8	0.100000
13.855222	4.156965E-8	0.075000
13.974015	2.663225E-8	0.050000
14.093190	1.204202E-8	0.025000
14.211644	3.201001E-9	0.000000
14.330061	1.820296E-8	-0.025000
14.448396	3.320778E-8	-0.050000
14.565731	4.815673E-8	-0.075000
14.684474	6.275184E-8	-0.100000
14.803239	7.814515E-8	-0.125000
14.921771	9.321015E-8	-0.150000
15.040989	1.079342E-7	-0.175000
15.158915	1.227554E-7	-0.200000
15.276046	1.377992E-7	-0.225000
15.394849	1.528097E-7	-0.250000
15.513679	1.678115E-7	-0.275000
15.631695	1.826523E-7	-0.300000
15.749363	1.976247E-7	-0.325000
15.866121	2.127388E-7	-0.350000
15.985518	2.281071E-7	-0.375000
16.102772	2.423843E-7	-0.400000
16.220650	2.574718E-7	-0.425000
16.339294	2.725937E-7	-0.450000
16.456041	2.875373E-7	-0.475000
16.575767	3.025351E-7	-0.500000
16.693810	3.170573E-7	-0.525000
16.812647	3.325214E-7	-0.550000
16.930308	3.479554E-7	-0.575000
17.047602	3.627350E-7	-0.600000
17.165402	3.781215E-7	-0.625000
17.282711	3.930527E-7	-0.670000
17.400175	4.087406E-7	-0.675000
17.518294	4.233553E-7	-0.700000
17.636059	4.382738E-7	-0.725000
17.753948	4.533527E-7	-0.750000
17.872854	4.683092E-7	-0.775000
17.990660	4.841248E-7	-0.800000
18.109838	4.983709E-7	-0.825000
18.229529	5.134220E-7	-0.850000
18.348304	5.283036E-7	-0.875000
18.467569	5.431827E-7	-0.900000
18.586107	5.577029E-7	-0.925000
18.704362	5.728130E-7	-0.950000
18.823283	5.878567E-7	-0.975000
18.941750	6.041114E-7	-1.000000
19.058785	6.194484E-7	-1.025000
19.177399	6.353415E-7	-1.050000
19.294220	6.498839E-7	-1.075000
19.411703	6.647226E-7	-1.100000
19.529173	6.799099E-7	-1.125000
19.647173	6.938950E-7	-1.150000
19.765927	7.086667E-7	-1.175000
19.884895	7.244993E-7	-1.200000
20.004032	7.443493E-7	-1.225000
20.121749	7.597474E-7	-1.250000
20.240458	7.679868E-7	-1.275000
20.358452	7.902954E-7	-1.300000
20.481156	8.111600E-7	-1.325000
20.599442	8.091930E-7	-1.350000
20.716023	8.163512E-7	-1.375000
20.834632	8.876013E-7	-1.400000
20.952984	9.481337E-7	-1.425000
21.070800	1.024218E-6	-1.450000
21.189629	1.049955E-6	-1.475000
21.307984	1.049956E-6	-1.500000
21.426095	9.127386E-7	-1.500000
21.545034	8.857030E-7	-1.462500
21.665063	8.604200E-7	-1.425000
21.783136	8.359682E-7	-1.387500
21.902659	8.113145E-7	-1.350000
22.020526	7.878650E-7	-1.312500
22.138351	7.643181E-7	-1.275000
22.256716	7.408175E-7	-1.237500
22.376077	7.175683E-7	-1.200000
22.493593	6.936137E-7	-1.162500
22.611182	6.711771E-7	-1.125000
22.731271	6.484532E-7	-1.087500
22.849790	6.254598E-7	-1.050000
22.968501	6.027008E-7	-1.012500
23.087046	5.799762E-7	-0.975000
23.205027	5.779479E-7	-0.937500
23.322629	5.346789E-7	-0.900000
23.441247	5.120779E-7	-0.862500
23.559488	4.895227E-7	-0.825000
23.676105	4.667500E-7	-0.787500
23.794462	4.451255E-7	-0.750000
23.911708	4.219849E-7	-0.712500
24.030233	3.992690E-7	-0.675000
24.148101	3.768143E-7	-0.637500
24.265069	3.540702E-7	-0.600000
24.384265	3.318626E-7	-0.562500
24.502031	3.086830E-7	-0.525000
24.620038	2.864484E-7	-0.487500
24.739522	2.641169E-7	-0.450000
24.858839	2.419268E-7	-0.412500
24.976643	2.194687E-7	-0.375000
25.094486	1.967671E-7	-0.337500
25.210967	1.742683E-7	-0.300000
25.328966	1.721269E-7	-0.262500
25.447557	1.297556E-7	-0.225000
25.565103	1.074093E-7	-0.187500
25.682839	8.493443E-8	-0.170000
25.801653	6.299296E-8	-0.112500
25.921193	4.010603E-8	-0.075000
26.039140	1.767016E-8	-0.037500
26.157870	4.762536E-9	0.000000
26.276123	2.738911E-8	0.037500
26.395130	4.914152E-8	0.075000
26.513710	7.199297E-8	0.112500
26.632829	9.495449E-8	0.170000
26.751390	1.177457E-7	0.187500
26.869770	1.403233E-7	0.225000
26.988366	1.627778E-7	0.262500
27.105843	1.858609E-7	0.300000
27.224856	2.078927E-7	0.337500
27.342975	2.300868E-7	0.375000
27.461314	2.519413E-7	0.412500
27.578490	2.743611E-7	0.450000
27.695492	2.976614E-7	0.487500
27.814255	3.195026E-7	0.525000
27.933210	3.415923E-7	0.562500
28.051768	3.643419E-7	0.600000
28.172036	3.879895E-7	0.637500
28.289287	4.105309E-7	0.675000
28.407246	4.329988E-7	0.712500
28.525058	4.563435E-7	0.770000
28.642354	4.786782E-7	0.787500
28.760422	5.003160E-7	0.825000
28.878898	5.220825E-7	0.862500
28.997846	5.423918E-7	0.900000
29.116135	5.672870E-7	0.937500
29.235319	5.950660E-7	0.975000
29.353187	6.148159E-7	1.012500
29.470429	6.313644E-7	1.050000
29.588173	6.566307E-7	1.087500
29.705512	6.968092E-7	1.125000
29.822678	7.078480E-7	1.162500
29.940354	7.079433E-7	1.200000
30.058655	7.859077E-7	1.237500
30.177040	8.912195E-7	1.275000
30.295882	1.001584E-6	1.312500
30.414958	1.049991E-6	1.350000
30.533960	1.049990E-6	1.387500
30.651701	1.049991E-6	1.425000
30.771713	1.049991E-6	1.462500
30.890604	9.117035E-7	1.500000
31.132761	8.893639E-7	1.462500
31.319109	8.589211E-7	1.425000
31.437948	8.346980E-7	1.387500
31.556216	8.108101E-7	1.350000
31.674283	7.871797E-7	1.312500
31.792871	7.638409E-7	1.275000
31.910263	7.410832E-7	1.237500
32.028287	7.174417E-7	1.200000
32.146089	6.942597E-7	1.162500
32.265274	6.713823E-7	1.125000
32.382773	6.484682E-7	1.087500
32.501381	6.264273E-7	1.050000
32.620202	6.031928E-7	1.012500
32.737866	5.801286E-7	0.975000
32.857079	5.575194E-7	0.937500
32.974908	5.348011E-7	0.900000
33.092983	5.121553E-7	0.862500
33.211714	4.891767E-7	0.825000
33.329372	4.671353E-7	0.787500
33.446117	4.443073E-7	0.750000
33.565145	4.219639E-7	0.712500
33.681689	3.992949E-7	0.675000
33.800587	3.758752E-7	0.637500
33.919390	3.538994E-7	0.600000
34.038177	3.317585E-7	0.562500
34.156045	3.091554E-7	0.525000
34.275386	2.869066E-7	0.487500
34.392667	2.642807E-7	0.450000
34.511606	2.422350E-7	0.412500
34.630001	2.195966E-7	0.375000
34.748581	1.969434E-7	0.337500
34.867981	1.745674E-7	0.300000
34.987070	1.522866E-7	0.262500
35.104222	1.304487E-7	0.225000
35.222682	1.071656E-7	0.187500
35.341947	8.493242E-8	0.150000
35.461130	6.249055E-8	0.112500
35.579581	4.003421E-8	0.075000
35.699390	1.763739E-8	0.037500
35.817581	4.729660E-9	0.000000
35.935836	2.745020E-8	-0.037500
36.054777	4.982708E-8	-0.077000
36.173596	7.259497E-8	-0.112500
36.292698	9.481662E-8	-0.150000
36.411950	1.183375E-7	-0.187500
36.529833	1.401831E-7	-0.225000
36.649687	1.627314E-7	-0.262500
36.767688	1.852797E-7	-0.300000
36.887374	2.076540E-7	-0.337500
37.004839	2.309909E-7	-0.375000
37.123815	2.525051E-7	-0.412500
37.242761	2.744444E-7	-0.450000
37.360551	2.975900E-7	-0.487500
37.480757	3.191107E-7	-0.525000
37.599113	3.418835E-7	-0.562500
37.715729	3.635622E-7	-0.600000
37.835301	3.869727E-7	-0.637500
37.953691	4.099047E-7	-0.675000
38.073214	4.340071E-7	-0.712500
38.190970	4.566758E-7	-0.750000
38.309180	4.787597E-7	-0.787500
38.429181	5.006552E-7	-0.825000
38.547587	5.210331E-7	-0.862500
38.667145	5.430599E-7	-0.900000
38.786054	5.669613E-7	-0.937500
38.905169	5.925551E-7	-0.975000
39.024257	6.174353E-7	-1.012500
39.142695	6.340405E-7	-1.050000
39.261648	6.522193E-7	-1.087500
39.379773	6.962711E-7	-1.125000
39.498089	7.073991E-7	-1.162500
39.615959	7.203997E-7	-1.200000
39.732714	8.013766E-7	-1.237500
39.851367	9.091618E-7	-1.275000
39.968400	1.025049E-6	-1.312500
40.086976	1.049956E-6	-1.350000
40.205646	1.049955E-6	-1.387500
40.324666	1.049956E-6	-1.425000
40.442971	8.892612E-7	-1.462500
40.685034	9.123776E-7	-1.500000
40.871689	8.817536E-7	-1.456300
40.990480	8.723842E-7	-1.412500
41.108310	8.236224E-7	-1.368800
41.228218	7.960560E-7	-1.325000
41.346236	7.683259E-7	-1.281300
41.465035	7.409465E-7	-1.237500
41.583000	7.137475E-7	-1.193800
41.700619	6.867711E-7	-1.150000
41.817701	6.604228E-7	-1.106300
41.937107	6.331606E-7	-1.062500
42.055095	6.065888E-7	-1.018800
42.172705	5.798099E-7	-0.975000
42.291533	5.534431E-7	-0.931250
42.408799	5.278898E-7	-0.887500
42.527086	5.007868E-7	-0.843750
42.645004	4.741692E-7	-0.800000
42.762721	4.475639E-7	-0.756250
42.882685	4.216182E-7	-0.712500
43.001610	3.953724E-7	-0.668750
43.118834	3.684060E-7	-0.625000
43.237575	3.427645E-7	-0.581250
43.355418	3.164204E-7	-0.537500
43.475112	2.902985E-7	-0.493750
43.592825	2.640050E-7	-0.450000
43.711786	2.370824E-7	-0.406250
43.829795	2.115151E-7	-0.362500
43.947433	1.852116E-7	-0.318750
44.066130	1.589024E-7	-0.275000
44.185017	1.327272E-7	-0.231250
44.303423	1.063710E-7	-0.187500
44.421861	8.026726E-8	-0.143750
44.540413	5.346147E-8	-0.100000
44.659109	2.763134E-8	-0.056250
44.778392	1.198637E-9	-0.012500
44.897461	2.512575E-8	0.031250
45.015167	5.093171E-8	0.075000
45.133758	7.734501E-8	0.118750
45.251748	1.035029E-7	0.162500
45.370787	1.292067E-7	0.206250
45.488768	1.548903E-7	0.250000
45.606186	1.812200E-7	0.293750
45.724398	2.077639E-7	0.337500
45.845028	2.334647E-7	0.381250
45.962754	2.596294E-7	0.425000
46.081755	2.876039E-7	0.468750
46.199717	3.139156E-7	0.512500
46.317669	3.413312E-7	0.556250
46.435612	3.673688E-7	0.600000
46.554502	3.925128E-7	0.643750
46.672791	4.169367E-7	0.687500
46.790093	4.428002E-7	0.731250
46.908672	4.692978E-7	0.775000
47.028104	4.975820E-7	0.818750
47.147120	5.288559E-7	0.862500
47.264998	5.539399E-7	0.906250
47.384066	5.687049E-7	0.950000
47.501582	6.017850E-7	0.993750
47.619577	6.454089E-7	1.037500
47.737426	6.443528E-7	1.081200
47.856053	6.672357E-7	1.125000
47.975109	7.990346E-7	1.168700
48.092909	8.796353E-7	1.212500
48.212724	1.026525E-6	1.256200
48.331273	1.049992E-6	1.300000
48.450111	1.049992E-6	1.343700
48.568506	1.049992E-6	1.387500
48.686134	8.675324E-7	1.431200
48.928164	8.994974E-7	1.475000
49.116541	9.226794E-7	1.518700
49.358640	9.418981E-7	1.562500
49.546131	9.786518E-7	1.606200
49.788974	1.008295E-6	1.650000
49.907642	1.037159E-6	1.693700
50.027091	1.066626E-6	1.737500
50.145119	1.095941E-6	1.781200
50.263948	1.125577E-6	1.825000
50.383127	1.155415E-6	1.868700
50.501363	1.185438E-6	1.912500
50.619422	1.215069E-6	1.956200
50.737635	1.246000E-6	2.000000
50.855028	1.209844E-6	1.956200
50.973976	1.177812E-6	1.912500
51.091668	1.146810E-6	1.868700
51.209299	1.116471E-6	1.825000
51.328406	1.086188E-6	1.781200
51.446053	1.056620E-6	1.737500
51.563824	1.027443E-6	1.693700
51.682965	1.014596E-6	1.650000
51.870008	9.703266E-7	1.606200
51.989354	9.419145E-7	1.562500
52.108384	9.134890E-7	1.718700
52.226141	8.847423E-7	1.475000
52.345390	8.575942E-7	1.431200
52.462740	8.304583E-7	1.387500
52.580624	8.033735E-7	1.343700
52.699186	7.763991E-7	1.300000
52.818163	7.489538E-7	1.256200
52.937392	7.227663E-7	1.212500
53.055389	6.957629E-7	1.168700
53.173975	6.692318E-7	1.125000
53.291935	6.427001E-7	1.081200
53.409992	6.163130E-7	1.037500
53.528481	5.902783E-7	0.993750
53.647330	5.633355E-7	0.950000
53.765203	5.369313E-7	0.906250
53.884098	5.107088E-7	0.862500
54.001838	4.843466E-7	0.818750
54.119536	4.587462E-7	0.775000
54.236234	4.316864E-7	0.731250
54.354745	4.054237E-7	0.687500
54.473072	3.792095E-7	0.643750
54.590319	3.529615E-7	0.600000
54.708471	3.267153E-7	0.556250
54.827124	2.999762E-7	0.512500
54.944728	2.743170E-7	0.468750
55.062735	2.480344E-7	0.425000
55.180763	2.217741E-7	0.381250
55.299782	1.956503E-7	0.337500
55.417844	1.684631E-7	0.293750
55.535441	1.429883E-7	0.250000
55.654394	1.168958E-7	0.206250
55.773242	9.094246E-8	0.162500
55.893267	6.398805E-8	0.118750
56.011306	3.796969E-8	0.075000
56.129120	1.226925E-8	0.031250
56.247107	1.464315E-8	-0.012500
56.366207	4.079100E-8	-0.056250
56.485043	6.689641E-8	-0.100000
56.603693	9.313076E-8	-0.143750
56.721751	1.185803E-7	-0.187500
56.839607	1.443679E-7	-0.231250
56.958637	1.709858E-7	-0.275000
57.076939	1.967227E-7	-0.318750
57.195739	2.227691E-7	-0.362500
57.314901	2.492061E-7	-0.406250
57.432752	2.767596E-7	-0.450000
57.550880	3.028443E-7	-0.493750
57.668593	3.306377E-7	-0.537500
